wavelength, flux 
380,0.441
380.1,0.517
380.2,0.578
380.3,0.648
380.4,0.701
380.5,0.731
380.6,0.798
380.7,0.793
380.8,0.884
380.9,0.902
381,0.945
381.1,0.954
381.2,0.985
381.3,0.951
381.4,0.973
381.5,0.964
381.6,0.939
381.7,1.019
381.8,0.982
381.9,1
382,0.92
382.1,0.921
382.2,0.907
382.3,0.909
382.4,0.819
382.5,0.791
382.6,0.752
382.7,0.741
382.8,0.669
382.9,0.605
383,0.596
383.1,0.541
383.2,0.447
383.3,0.412
383.4,0.34
383.5,0.251
383.6,0.278
383.7,0.358
383.8,0.393
383.9,0.476
384,0.521
384.1,0.562
384.2,0.641
384.3,0.66
384.4,0.717
384.5,0.741
384.6,0.779
384.7,0.806
384.8,0.841
384.9,0.874
385,0.832
385.1,0.912
385.2,0.937
385.3,0.94
385.4,0.91
385.5,0.973
385.6,0.838
385.7,0.981
385.8,0.956
385.9,0.941
386,0.922
386.1,0.985
386.2,0.986
386.3,0.901
386.4,0.957
386.5,0.965
386.6,0.914
386.7,0.91
386.8,0.952
386.9,0.94
387,0.91
387.1,0.898
387.2,0.878
387.3,0.823
387.4,0.847
387.5,0.836
387.6,0.812
387.7,0.785
387.8,0.654
387.9,0.651
388,0.681
388.1,0.643
388.2,0.589
388.3,0.548
388.4,0.507
388.5,0.455
388.6,0.391
388.7,0.345
388.8,0.288
388.9,0.206
389,0.281
389.1,0.342
389.2,0.396
389.3,0.443
389.4,0.492
389.5,0.542
389.6,0.556
389.7,0.628
389.8,0.639
389.9,0.686
390,0.686
390.1,0.705
390.2,0.791
390.3,0.757
390.4,0.755
390.5,0.822
390.6,0.783
390.7,0.869
390.8,0.897
390.9,0.906
391,0.926
391.1,0.934
391.2,0.945
391.3,0.913
391.4,0.894
391.5,0.957
391.6,0.954
391.7,0.957
391.8,0.953
391.9,0.932
392,0.939
392.1,0.965
392.2,0.989
392.3,0.94
392.4,0.994
392.5,0.989
392.6,0.954
392.7,0.995
392.8,0.923
392.9,0.983
393,0.923
393.1,0.982
393.2,0.947
393.3,0.901
393.4,0.7
393.5,0.973
393.6,0.926
393.7,0.976
393.8,0.875
393.9,0.932
394,0.97
394.1,0.948
394.2,0.945
394.3,0.938
394.4,0.858
394.5,0.898
394.6,0.935
394.7,0.884
394.8,0.871
394.9,0.874
395,0.865
395.1,0.858
395.2,0.837
395.3,0.826
395.4,0.823
395.5,0.793
395.6,0.764
395.7,0.708
395.8,0.72
395.9,0.699
396,0.667
396.1,0.607
396.2,0.569
396.3,0.554
396.4,0.516
396.5,0.472
396.6,0.427
396.7,0.38
396.8,0.311
396.9,0.265
397,0.197
397.1,0.271
397.2,0.328
397.3,0.379
397.4,0.414
397.5,0.468
397.6,0.513
397.7,0.549
397.8,0.582
397.9,0.624
398,0.658
398.1,0.692
398.2,0.688
398.3,0.738
398.4,0.756
398.5,0.789
398.6,0.803
398.7,0.818
398.8,0.844
398.9,0.866
399,0.871
399.1,0.881
399.2,0.902
399.3,0.915
399.4,0.892
399.5,0.917
399.6,0.924
399.7,0.9
399.8,0.944
399.9,0.931
400,0.958
400.1,0.965
400.2,0.909
400.3,0.924
400.4,0.963
400.5,0.921
400.6,0.947
400.7,0.968
400.8,0.981
400.9,0.986
401,0.954
401.1,0.985
401.2,0.917
401.3,0.979
401.4,0.977
401.5,0.96
401.6,0.973
401.7,0.988
401.8,0.976
401.9,0.995
402,0.99
402.1,0.995
402.2,0.959
402.3,0.965
402.4,0.98
402.5,0.914
402.6,0.989
402.7,0.995
402.8,0.93
402.9,0.976
403,0.966
403.1,0.936
403.2,0.973
403.3,0.929
403.4,0.976
403.5,0.982
403.6,0.941
403.7,0.99
403.8,0.982
403.9,0.99
404,0.993
404.1,0.969
404.2,0.983
404.3,0.994
404.4,0.972
404.5,0.986
404.6,0.899
404.7,0.99
404.8,0.993
404.9,0.948
405,0.99
405.1,0.981
405.2,0.961
405.3,0.982
405.4,0.925
405.5,0.961
405.6,0.974
405.7,0.961
405.8,0.946
405.9,0.97
406,0.975
406.1,0.972
406.2,0.949
406.3,0.946
406.4,0.894
406.5,0.958
406.6,0.964
406.7,0.895
406.8,0.943
406.9,0.948
407,0.941
407.1,0.902
407.2,0.876
407.3,0.926
407.4,0.913
407.5,0.895
407.6,0.902
407.7,0.854
407.8,0.834
407.9,0.884
408,0.861
408.1,0.866
408.2,0.841
408.3,0.836
408.4,0.81
408.5,0.783
408.6,0.782
408.7,0.765
408.8,0.743
408.9,0.719
409,0.695
409.1,0.667
409.2,0.639
409.3,0.607
409.4,0.575
409.5,0.54
409.6,0.5
409.7,0.461
409.8,0.417
409.9,0.374
410,0.326
410.1,0.265
410.2,0.209
410.3,0.301
410.4,0.353
410.5,0.399
410.6,0.444
410.7,0.484
410.8,0.523
410.9,0.559
411,0.589
411.1,0.61
411.2,0.654
411.3,0.672
411.4,0.713
411.5,0.734
411.6,0.762
411.7,0.783
411.8,0.794
411.9,0.791
412,0.824
412.1,0.849
412.2,0.864
412.3,0.855
412.4,0.886
412.5,0.891
412.6,0.887
412.7,0.913
412.8,0.826
412.9,0.882
413,0.931
413.1,0.869
413.2,0.883
413.3,0.929
413.4,0.945
413.5,0.932
413.6,0.957
413.7,0.932
413.8,0.955
413.9,0.972
414,0.965
414.1,0.976
414.2,0.968
414.3,0.946
414.4,0.919
414.5,0.98
414.6,0.955
414.7,0.979
414.8,0.968
414.9,0.961
415,0.975
415.1,0.974
415.2,0.984
415.3,0.988
415.4,0.936
415.5,0.948
415.6,0.987
415.7,0.962
415.8,0.966
415.9,0.981
416,0.995
416.1,0.977
416.2,0.97
416.3,0.987
416.4,0.938
416.5,0.994
416.6,0.999
416.7,0.954
416.8,0.994
416.9,0.999
417,0.996
417.1,0.986
417.2,0.924
417.3,0.929
417.4,0.942
417.5,1
417.6,0.957
417.7,0.978
417.8,0.943
417.9,0.931
418,0.997
418.1,0.99
418.2,0.957
418.3,0.988
418.4,0.988
418.5,0.971
418.6,1.003
418.7,0.958
418.8,0.95
418.9,0.984
419,0.987
419.1,0.969
419.2,0.991
419.3,1.001
419.4,1
419.5,0.972
419.6,0.964
419.7,1
419.8,0.938
419.9,0.932
420,0.994
420.1,0.989
420.2,0.937
420.3,0.996
420.4,0.98
420.5,0.973
420.6,0.987
420.7,0.984
420.8,1.004
420.9,0.993
421,0.967
421.1,1.002
421.2,0.999
421.3,1.001
421.4,0.992
421.5,0.977
421.6,0.939
421.7,0.985
421.8,0.979
421.9,0.971
422,0.99
422.1,1.003
422.2,0.973
422.3,0.992
422.4,0.98
422.5,0.959
422.6,0.978
422.7,0.865
422.8,0.993
422.9,0.998
423,0.997
423.1,1
423.2,0.999
423.3,0.909
423.4,0.962
423.5,0.992
423.6,0.947
423.7,1
423.8,0.989
423.9,0.955
424,0.984
424.1,0.997
424.2,0.953
424.3,0.992
424.4,0.996
424.5,0.975
424.6,0.992
424.7,0.89
424.8,0.992
424.9,0.999
425,0.952
425.1,0.942
425.2,0.991
425.3,0.971
425.4,0.954
425.5,0.987
425.6,0.994
425.7,0.998
425.8,0.967
425.9,0.991
426,0.938
426.1,0.973
426.2,0.958
426.3,0.974
426.4,0.987
426.5,0.992
426.6,0.992
426.7,0.991
426.8,0.989
426.9,0.969
427,0.991
427.1,0.947
427.2,0.922
427.3,0.959
427.4,0.988
427.5,0.955
427.6,0.97
427.7,0.986
427.8,0.968
427.9,0.986
428,0.985
428.1,0.984
428.2,0.951
428.3,0.964
428.4,0.964
428.5,0.971
428.6,0.977
428.7,0.979
428.8,0.941
428.9,0.964
429,0.872
429.1,0.978
429.2,0.976
429.3,0.978
429.4,0.91
429.5,0.963
429.6,0.966
429.7,0.941
429.8,0.965
429.9,0.913
430,0.891
430.1,0.955
430.2,0.897
430.3,0.88
430.4,0.954
430.5,0.939
430.6,0.929
430.7,0.938
430.8,0.838
430.9,0.926
431,0.922
431.1,0.927
431.2,0.922
431.3,0.863
431.4,0.838
431.5,0.831
431.6,0.894
431.7,0.869
431.8,0.874
431.9,0.848
432,0.851
432.1,0.777
432.2,0.824
432.3,0.812
432.4,0.795
432.5,0.743
432.6,0.707
432.7,0.727
432.8,0.711
432.9,0.692
433,0.656
433.1,0.629
433.2,0.61
433.3,0.578
433.4,0.546
433.5,0.512
433.6,0.474
433.7,0.432
433.8,0.38
433.9,0.342
434,0.253
434.1,0.264
434.2,0.346
434.3,0.394
434.4,0.431
434.5,0.478
434.6,0.517
434.7,0.552
434.8,0.584
434.9,0.614
435,0.646
435.1,0.671
435.2,0.637
435.3,0.714
435.4,0.742
435.5,0.761
435.6,0.786
435.7,0.802
435.8,0.811
435.9,0.832
436,0.843
436.1,0.855
436.2,0.866
436.3,0.872
436.4,0.893
436.5,0.9
436.6,0.908
436.7,0.917
436.8,0.868
436.9,0.922
437,0.921
437.1,0.93
437.2,0.939
437.3,0.949
437.4,0.921
437.5,0.9
437.6,0.953
437.7,0.959
437.8,0.966
437.9,0.969
438,0.966
438.1,0.974
438.2,0.976
438.3,0.953
438.4,0.896
438.5,0.887
438.6,0.982
438.7,0.952
438.8,0.959
438.9,0.988
439,0.972
439.1,0.93
439.2,0.989
439.3,0.99
439.4,0.968
439.5,0.918
439.6,0.958
439.7,0.997
439.8,0.964
439.9,0.999
440,0.905
440.1,0.988
440.2,0.989
440.3,0.99
440.4,0.999
440.5,0.942
440.6,1.002
440.7,1.001
440.8,0.985
440.9,0.98
441,0.994
441.1,0.971
441.2,0.981
441.3,1.002
441.4,0.986
441.5,0.95
441.6,0.976
441.7,0.946
441.8,0.92
441.9,0.999
442,1.001
442.1,0.995
442.2,0.972
442.3,0.986
442.4,0.993
442.5,0.987
442.6,0.999
442.7,0.991
442.8,0.981
442.9,1.002
443,0.996
443.1,0.991
443.2,0.996
443.3,0.986
443.4,0.967
443.5,0.967
443.6,0.978
443.7,0.995
443.8,1
443.9,1.001
444,1
444.1,0.999
444.2,0.97
444.3,0.982
444.4,0.923
444.5,0.985
444.6,0.992
444.7,0.999
444.8,0.988
444.9,1
445,0.963
445.1,0.979
445.2,0.985
445.3,0.997
445.4,0.991
445.5,0.934
445.6,0.981
445.7,0.99
445.8,0.991
445.9,0.975
446,1
446.1,0.985
446.2,0.97
446.3,0.999
446.4,0.975
446.5,0.989
446.6,0.99
446.7,0.973
446.8,0.966
446.9,0.932
447,0.992
447.1,0.967
447.2,0.979
447.3,0.996
447.4,0.994
447.5,0.998
447.6,0.951
447.7,1
447.8,0.999
447.9,0.987
448,0.984
448.1,0.699
448.2,0.955
448.3,0.989
448.4,0.983
448.5,0.998
448.6,0.992
448.7,0.995
448.8,0.959
448.9,0.968
449,0.995
449.1,0.944
449.2,0.996
449.3,0.994
449.4,0.99
449.5,0.978
449.6,0.996
449.7,0.99
449.8,0.996
449.9,0.993
450,0.992
450.1,0.928
450.2,0.998
450.3,0.999
450.4,0.997
450.5,0.999
450.6,0.998
450.7,0.994
450.8,0.936
450.9,0.998
451,0.998
451.1,0.997
451.2,0.994
451.3,0.997
451.4,0.997
451.5,0.938
451.6,0.991
451.7,0.996
451.8,0.979
451.9,0.997
452,0.961
452.1,0.998
452.2,0.995
452.3,0.929
452.4,0.997
452.5,0.939
452.6,0.995
452.7,0.993
452.8,0.992
452.9,0.943
453,0.988
453.1,0.985
453.2,0.993
453.3,0.991
453.4,0.883
453.5,0.993
453.6,0.993
453.7,0.996
453.8,0.996
453.9,0.997
454,0.996
454.1,0.977
454.2,0.967
454.3,0.999
454.4,0.989
454.5,0.99
454.6,0.995
454.7,0.995
454.8,0.987
454.9,0.916
455,0.886
455.1,0.999
455.2,0.996
455.3,0.998
455.4,0.991
455.5,0.96
455.6,0.921
455.7,0.998
455.8,0.998
455.9,0.931
456,0.998
456.1,0.998
456.2,0.999
456.3,0.999
456.4,0.932
456.5,0.992
456.6,0.993
456.7,0.998
456.8,0.98
456.9,0.995
457,0.998
457.1,0.996
457.2,0.92
457.3,0.998
457.4,0.998
457.5,0.997
457.6,0.949
457.7,0.998
457.8,0.993
457.9,0.986
458,0.962
458.1,0.977
458.2,0.994
458.3,0.952
458.4,0.912
458.5,0.997
458.6,0.974
458.7,0.996
458.8,0.939
458.9,0.991
459,0.954
459.1,0.992
459.2,0.953
459.3,0.992
459.4,0.995
459.5,0.995
459.6,0.967
459.7,0.998
459.8,0.992
459.9,0.994
460,0.992
460.1,0.983
460.2,0.988
460.3,0.991
460.4,0.999
460.5,0.985
460.6,0.998
460.7,0.998
460.8,0.995
460.9,0.992
461,0.998
461.1,0.979
461.2,0.993
461.3,0.994
461.4,0.992
461.5,0.998
461.6,0.989
461.7,0.963
461.8,0.994
461.9,0.935
462,0.98
462.1,0.971
462.2,0.993
462.3,0.997
462.4,0.999
462.5,0.994
462.6,0.981
462.7,0.993
462.8,0.998
462.9,0.929
463,0.997
463.1,0.998
463.2,0.996
463.3,0.997
463.4,0.939
463.5,0.961
463.6,0.989
463.7,0.996
463.8,0.985
463.9,0.999
464,0.997
464.1,0.997
464.2,0.997
464.3,0.994
464.4,0.998
464.5,0.993
464.6,0.993
464.7,0.992
464.8,0.995
464.9,0.982
465,0.999
465.1,0.998
465.2,0.994
465.3,0.998
465.4,0.997
465.5,0.984
465.6,0.994
465.7,0.959
465.8,0.999
465.9,0.997
466,0.998
466.1,0.996
466.2,0.997
466.3,0.984
466.4,0.993
466.5,0.992
466.6,0.994
466.7,0.953
466.8,0.986
466.9,0.99
467,0.963
467.1,0.997
467.2,0.999
467.3,0.989
467.4,0.997
467.5,0.996
467.6,0.997
467.7,0.998
467.8,0.997
467.9,0.971
468,0.992
468.1,0.996
468.2,0.996
468.3,0.998
468.4,0.999
468.5,0.994
468.6,0.991
468.7,0.999
468.8,0.999
468.9,0.998
469,0.993
469.1,0.981
469.2,0.996
469.3,0.998
469.4,0.996
469.5,0.996
469.6,0.996
469.7,0.999
469.8,0.993
469.9,0.993
470,0.999
470.1,0.997
470.2,0.992
470.3,0.94
470.4,0.993
470.5,0.994
470.6,0.998
470.7,0.987
470.8,0.997
470.9,0.981
471,0.994
471.1,0.997
471.2,1
471.3,0.996
471.4,0.983
471.5,0.998
471.6,0.996
471.7,0.978
471.8,1.001
471.9,1.002
472,0.998
472.1,0.97
472.2,0.998
472.3,1.001
472.4,1.004
472.5,1.005
472.6,1.005
472.7,0.996
472.8,1
472.9,0.998
473,0.996
473.1,0.975
473.2,0.992
473.3,1.005
473.4,0.996
473.5,1.006
473.6,0.998
473.7,0.991
473.8,1.001
473.9,1.001
474,0.992
474.1,1.008
474.2,1.005
474.3,1.006
474.4,1.011
474.5,1.008
474.6,1.003
474.7,1.012
474.8,1.01
474.9,1.013
475,1.012
475.1,1.015
475.2,1.009
475.3,1.015
475.4,1.007
475.5,1.014
475.6,1
475.7,1.012
475.8,1.013
475.9,1.015
476,1.016
476.1,1.016
476.2,1
476.3,1.007
476.4,1.003
476.5,1.007
476.6,1.011
476.7,1.007
476.8,1.015
476.9,1.018
477,1.012
477.1,1.02
477.2,1.004
477.3,1.017
477.4,1.021
477.5,1.021
477.6,0.994
477.7,1.022
477.8,1.022
477.9,1.02
478,0.989
478.1,1.019
478.2,1.021
478.3,1.013
478.4,1.018
478.5,1.021
478.6,1.016
478.7,1.014
478.8,1.023
478.9,1.013
479,1.012
479.1,1.023
479.2,1.014
479.3,1.019
479.4,1.023
479.5,1.023
479.6,1.02
479.7,1.022
479.8,1.014
479.9,1.016
480,1
480.1,1.016
480.2,1.017
480.3,1.017
480.4,1.021
480.5,0.975
480.6,1.018
480.7,1.013
480.8,1.017
480.9,1.017
481,1.015
481.1,1.009
481.2,0.997
481.3,1.011
481.4,1.014
481.5,1.001
481.6,1.009
481.7,1.006
481.8,0.999
481.9,1.007
482,1.001
482.1,1
482.2,1.001
482.3,0.992
482.4,0.94
482.5,0.987
482.6,0.984
482.7,0.979
482.8,0.979
482.9,0.969
483,0.968
483.1,0.958
483.2,0.958
483.3,0.946
483.4,0.943
483.5,0.936
483.6,0.91
483.7,0.919
483.8,0.911
483.9,0.899
484,0.88
484.1,0.879
484.2,0.866
484.3,0.852
484.4,0.84
484.5,0.825
484.6,0.809
484.7,0.791
484.8,0.747
484.9,0.752
485,0.733
485.1,0.708
485.2,0.685
485.3,0.659
485.4,0.632
485.5,0.599
485.6,0.565
485.7,0.536
485.8,0.499
485.9,0.459
486,0.411
486.1,0.283
486.2,0.351
486.3,0.43
486.4,0.469
486.5,0.512
486.6,0.546
486.7,0.581
486.8,0.612
486.9,0.64
487,0.667
487.1,0.673
487.2,0.702
487.3,0.736
487.4,0.746
487.5,0.776
487.6,0.767
487.7,0.805
487.8,0.795
487.9,0.838
488,0.852
488.1,0.863
488.2,0.871
488.3,0.884
488.4,0.885
488.5,0.891
488.6,0.906
488.7,0.911
488.8,0.925
488.9,0.924
489,0.938
489.1,0.883
489.2,0.928
489.3,0.947
489.4,0.947
489.5,0.959
489.6,0.962
489.7,0.965
489.8,0.97
489.9,0.972
490,0.964
490.1,0.976
490.2,0.967
490.3,0.957
490.4,0.976
490.5,0.984
490.6,0.985
490.7,0.986
490.8,0.984
490.9,0.988
491,0.976
491.1,0.954
491.2,0.984
491.3,0.985
491.4,0.991
491.5,0.989
491.6,0.994
491.7,0.989
491.8,0.986
491.9,0.953
492,0.964
492.1,0.969
492.2,0.988
492.3,0.996
492.4,0.912
492.5,0.984
492.6,0.992
492.7,0.995
492.8,0.999
492.9,0.999
493,0.997
493.1,0.999
493.2,0.98
493.3,0.993
493.4,0.987
493.5,0.996
493.6,0.993
493.7,0.994
493.8,0.995
493.9,0.978
494,0.981
494.1,0.995
494.2,0.996
494.3,0.997
494.4,0.998
494.5,1
494.6,0.991
494.7,0.999
494.8,0.996
494.9,0.992
495,0.998
495.1,1
495.2,0.994
495.3,0.996
495.4,0.997
495.5,0.996
495.6,1
495.7,0.962
495.8,0.938
495.9,1
496,1.002
496.1,1.002
496.2,1.001
496.3,0.999
496.4,1.002
496.5,1
496.6,0.991
496.7,1.001
496.8,0.992
496.9,1
497,0.995
497.1,0.997
497.2,1.002
497.3,0.992
497.4,1.001
497.5,1.001
497.6,1.001
497.7,0.994
497.8,1
497.9,0.99
498,0.99
498.1,0.995
498.2,0.979
498.3,0.965
498.4,0.964
498.5,0.982
498.6,0.993
498.7,1.001
498.8,1.001
498.9,0.988
499,0.998
499.1,0.983
499.2,1.001
499.3,0.978
499.4,0.981
499.5,1.002
499.6,1
499.7,0.999
499.8,1
499.9,0.995